# Average Spectral response curve for JWST MIRI F1800W

#Detector Type
Photon counter

# Wave (microns)     Filter Response
15.0300 0.0001
15.0360 0.0001
15.0420 0.0001
15.0480 0.0001
15.0530 0.0001
15.0590 0.0001
15.0650 0.0001
15.0710 0.0001
15.0770 0.0001
15.0820 0.0001
15.0880 0.0001
15.0940 0.0002
15.1000 0.0002
15.1060 0.0002
15.1110 0.0002
15.1170 0.0002
15.1230 0.0002
15.1290 0.0002
15.1350 0.0002
15.1400 0.0002
15.1460 0.0002
15.1520 0.0002
15.1580 0.0002
15.1640 0.0002
15.1690 0.0002
15.1750 0.0002
15.1810 0.0002
15.1870 0.0002
15.1930 0.0002
15.1980 0.0002
15.2040 0.0001
15.2100 0.0001
15.2160 0.0001
15.2220 0.0001
15.2270 0.0001
15.2330 0.0001
15.2390 0.0001
15.2450 0.0001
15.2510 0.0001
15.2560 0.0001
15.2620 0.0001
15.2680 0.0001
15.2740 0.0001
15.2800 0.0001
15.2850 0.0001
15.2910 0.0001
15.2970 0.0001
15.3030 0.0001
15.3090 0.0001
15.3140 0.0001
15.3200 0.0001
15.3260 0.0001
15.3320 0.0002
15.3380 0.0002
15.3430 0.0002
15.3490 0.0002
15.3550 0.0002
15.3610 0.0001
15.3670 0.0001
15.3720 0.0001
15.3780 0.0001
15.3840 0.0001
15.3900 0.0001
15.3960 0.0001
15.4010 0.0001
15.4070 0.0001
15.4130 0.0001
15.4190 0.0001
15.4250 0.0001
15.4300 0.0001
15.4360 0.0001
15.4420 0.0001
15.4480 0.0001
15.4540 0.0001
15.4590 0.0001
15.4650 0.0001
15.4710 0.0001
15.4770 0.0001
15.4830 0.0001
15.4880 0.0001
15.4940 0.0001
15.5000 0.0001
15.5060 0.0001
15.5120 0.0001
15.5170 0.0001
15.5230 0.0001
15.5290 0.0001
15.5350 0.0001
15.5410 0.0001
15.5460 0.0001
15.5520 0.0001
15.5580 0.0001
15.5640 0.0001
15.5700 0.0001
15.5750 0.0001
15.5810 0.0001
15.5870 0.0001
15.5930 0.0001
15.5990 0.0001
15.6040 0.0002
15.6100 0.0002
15.6160 0.0002
15.6220 0.0002
15.6280 0.0002
15.6330 0.0002
15.6390 0.0002
15.6450 0.0003
15.6510 0.0003
15.6570 0.0003
15.6620 0.0003
15.6680 0.0003
15.6740 0.0004
15.6800 0.0004
15.6860 0.0004
15.6910 0.0005
15.6970 0.0005
15.7030 0.0005
15.7090 0.0005
15.7150 0.0006
15.7200 0.0006
15.7260 0.0006
15.7320 0.0006
15.7380 0.0007
15.7440 0.0007
15.7490 0.0007
15.7550 0.0007
15.7610 0.0007
15.7670 0.0008
15.7730 0.0008
15.7780 0.0008
15.7840 0.0008
15.7900 0.0008
15.7960 0.0009
15.8020 0.0009
15.8070 0.0009
15.8130 0.0009
15.8190 0.0009
15.8250 0.0010
15.8310 0.0010
15.8360 0.0010
15.8420 0.0011
15.8480 0.0011
15.8540 0.0011
15.8600 0.0012
15.8650 0.0012
15.8710 0.0012
15.8770 0.0013
15.8830 0.0013
15.8890 0.0014
15.8940 0.0014
15.9000 0.0015
15.9060 0.0016
15.9120 0.0016
15.9180 0.0017
15.9230 0.0018
15.9290 0.0018
15.9350 0.0019
15.9410 0.0020
15.9470 0.0021
15.9520 0.0021
15.9580 0.0022
15.9640 0.0023
15.9700 0.0024
15.9760 0.0025
15.9810 0.0026
15.9870 0.0027
15.9930 0.0028
15.9990 0.0029
16.0050 0.0030
16.0100 0.0031
16.0160 0.0032
16.0220 0.0034
16.0280 0.0035
16.0340 0.0037
16.0390 0.0038
16.0450 0.0040
16.0510 0.0041
16.0570 0.0043
16.0630 0.0045
16.0680 0.0047
16.0740 0.0049
16.0800 0.0051
16.0860 0.0053
16.0920 0.0056
16.0970 0.0058
16.1030 0.0061
16.1090 0.0064
16.1150 0.0066
16.1210 0.0069
16.1260 0.0073
16.1320 0.0076
16.1380 0.0080
16.1440 0.0083
16.1500 0.0087
16.1550 0.0091
16.1610 0.0095
16.1670 0.0100
16.1730 0.0105
16.1790 0.0109
16.1840 0.0115
16.1900 0.0120
16.1960 0.0126
16.2020 0.0132
16.2080 0.0139
16.2130 0.0145
16.2190 0.0152
16.2250 0.0160
16.2310 0.0168
16.2370 0.0176
16.2420 0.0184
16.2480 0.0194
16.2540 0.0204
16.2600 0.0213
16.2660 0.0225
16.2710 0.0236
16.2770 0.0248
16.2830 0.0261
16.2890 0.0275
16.2950 0.0289
16.3000 0.0303
16.3060 0.0319
16.3120 0.0336
16.3180 0.0353
16.3240 0.0371
16.3290 0.0391
16.3350 0.0411
16.3410 0.0432
16.3470 0.0456
16.3530 0.0479
16.3580 0.0503
16.3640 0.0530
16.3700 0.0558
16.3760 0.0586
16.3820 0.0616
16.3870 0.0649
16.3930 0.0682
16.3990 0.0715
16.4050 0.0753
16.4110 0.0791
16.4160 0.0830
16.4220 0.0871
16.4280 0.0915
16.4340 0.0959
16.4400 0.1003
16.4450 0.1052
16.4510 0.1101
16.4570 0.1151
16.4630 0.1202
16.4690 0.1256
16.4740 0.1310
16.4800 0.1364
16.4860 0.1422
16.4920 0.1479
16.4980 0.1537
16.5030 0.1596
16.5090 0.1657
16.5150 0.1717
16.5210 0.1778
16.5270 0.1839
16.5320 0.1901
16.5380 0.1963
16.5440 0.2024
16.5500 0.2085
16.5560 0.2146
16.5610 0.2207
16.5670 0.2266
16.5730 0.2325
16.5790 0.2384
16.5850 0.2441
16.5900 0.2497
16.5960 0.2552
16.6020 0.2606
16.6080 0.2657
16.6140 0.2707
16.6190 0.2758
16.6250 0.2803
16.6310 0.2847
16.6370 0.2891
16.6430 0.2933
16.6480 0.2970
16.6540 0.3008
16.6600 0.3045
16.6660 0.3076
16.6720 0.3107
16.6770 0.3137
16.6830 0.3164
16.6890 0.3188
16.6950 0.3212
16.7010 0.3236
16.7060 0.3254
16.7120 0.3272
16.7180 0.3290
16.7240 0.3305
16.7300 0.3318
16.7350 0.3331
16.7410 0.3343
16.7470 0.3352
16.7530 0.3361
16.7590 0.3369
16.7640 0.3376
16.7700 0.3382
16.7760 0.3388
16.7820 0.3393
16.7880 0.3397
16.7930 0.3400
16.7990 0.3404
16.8050 0.3406
16.8110 0.3409
16.8170 0.3411
16.8220 0.3413
16.8280 0.3414
16.8340 0.3416
16.8400 0.3417
16.8460 0.3419
16.8510 0.3420
16.8570 0.3421
16.8630 0.3423
16.8690 0.3424
16.8750 0.3425
16.8800 0.3426
16.8860 0.3427
16.8920 0.3429
16.8980 0.3430
16.9040 0.3431
16.9090 0.3433
16.9150 0.3434
16.9210 0.3436
16.9270 0.3437
16.9330 0.3438
16.9380 0.3440
16.9440 0.3441
16.9500 0.3443
16.9560 0.3444
16.9620 0.3446
16.9670 0.3447
16.9730 0.3449
16.9790 0.3450
16.9850 0.3452
16.9910 0.3454
16.9960 0.3455
17.0020 0.3457
17.0080 0.3457
17.0140 0.3457
17.0200 0.3458
17.0250 0.3458
17.0310 0.3459
17.0370 0.3459
17.0430 0.3460
17.0490 0.3461
17.0540 0.3461
17.0600 0.3462
17.0660 0.3463
17.0720 0.3464
17.0780 0.3465
17.0830 0.3466
17.0890 0.3467
17.0950 0.3468
17.1010 0.3468
17.1070 0.3469
17.1120 0.3470
17.1180 0.3471
17.1240 0.3472
17.1300 0.3473
17.1360 0.3474
17.1410 0.3475
17.1470 0.3476
17.1530 0.3477
17.1590 0.3477
17.1650 0.3478
17.1700 0.3479
17.1760 0.3480
17.1820 0.3480
17.1880 0.3481
17.1940 0.3481
17.1990 0.3482
17.2050 0.3482
17.2110 0.3483
17.2170 0.3483
17.2230 0.3483
17.2280 0.3484
17.2340 0.3484
17.2400 0.3484
17.2460 0.3484
17.2520 0.3485
17.2570 0.3485
17.2630 0.3485
17.2690 0.3486
17.2750 0.3486
17.2810 0.3486
17.2860 0.3487
17.2920 0.3488
17.2980 0.3488
17.3040 0.3489
17.3100 0.3490
17.3150 0.3491
17.3210 0.3491
17.3270 0.3492
17.3330 0.3493
17.3390 0.3494
17.3440 0.3494
17.3500 0.3495
17.3560 0.3496
17.3620 0.3496
17.3680 0.3497
17.3730 0.3497
17.3790 0.3498
17.3850 0.3498
17.3910 0.3498
17.3970 0.3498
17.4020 0.3498
17.4080 0.3498
17.4140 0.3498
17.4200 0.3498
17.4260 0.3497
17.4310 0.3497
17.4370 0.3496
17.4430 0.3496
17.4490 0.3495
17.4550 0.3495
17.4600 0.3494
17.4660 0.3493
17.4720 0.3493
17.4780 0.3492
17.4840 0.3492
17.4890 0.3491
17.4950 0.3491
17.5010 0.3490
17.5070 0.3489
17.5130 0.3488
17.5180 0.3487
17.5240 0.3486
17.5300 0.3485
17.5360 0.3484
17.5420 0.3483
17.5470 0.3483
17.5530 0.3482
17.5590 0.3481
17.5650 0.3480
17.5710 0.3479
17.5760 0.3479
17.5820 0.3478
17.5880 0.3477
17.5940 0.3477
17.6000 0.3476
17.6050 0.3475
17.6110 0.3475
17.6170 0.3474
17.6230 0.3473
17.6290 0.3472
17.6340 0.3472
17.6400 0.3471
17.6460 0.3470
17.6520 0.3470
17.6580 0.3469
17.6630 0.3468
17.6690 0.3467
17.6750 0.3467
17.6810 0.3466
17.6870 0.3465
17.6920 0.3464
17.6980 0.3464
17.7040 0.3463
17.7100 0.3462
17.7160 0.3462
17.7210 0.3461
17.7270 0.3460
17.7330 0.3459
17.7390 0.3459
17.7450 0.3458
17.7500 0.3457
17.7560 0.3456
17.7620 0.3456
17.7680 0.3455
17.7740 0.3454
17.7790 0.3453
17.7850 0.3452
17.7910 0.3452
17.7970 0.3451
17.8030 0.3450
17.8080 0.3449
17.8140 0.3448
17.8200 0.3447
17.8260 0.3446
17.8320 0.3445
17.8370 0.3444
17.8430 0.3443
17.8490 0.3442
17.8550 0.3441
17.8610 0.3440
17.8660 0.3439
17.8720 0.3438
17.8780 0.3437
17.8840 0.3435
17.8900 0.3434
17.8950 0.3433
17.9010 0.3432
17.9070 0.3431
17.9130 0.3430
17.9190 0.3428
17.9240 0.3427
17.9300 0.3426
17.9360 0.3425
17.9420 0.3423
17.9480 0.3422
17.9530 0.3421
17.9590 0.3420
17.9650 0.3418
17.9710 0.3417
17.9770 0.3416
17.9820 0.3415
17.9880 0.3413
17.9940 0.3412
18.0000 0.3411
18.0060 0.3411
18.0110 0.3411
18.0170 0.3411
18.0230 0.3411
18.0290 0.3411
18.0350 0.3411
18.0400 0.3411
18.0460 0.3411
18.0520 0.3411
18.0580 0.3411
18.0640 0.3411
18.0690 0.3411
18.0750 0.3412
18.0810 0.3412
18.0870 0.3412
18.0930 0.3412
18.0980 0.3412
18.1040 0.3412
18.1100 0.3413
18.1160 0.3413
18.1220 0.3413
18.1270 0.3413
18.1330 0.3414
18.1390 0.3414
18.1450 0.3414
18.1510 0.3415
18.1560 0.3415
18.1620 0.3415
18.1680 0.3416
18.1740 0.3416
18.1800 0.3416
18.1850 0.3417
18.1910 0.3417
18.1970 0.3417
18.2030 0.3417
18.2090 0.3418
18.2140 0.3418
18.2200 0.3418
18.2260 0.3418
18.2320 0.3419
18.2380 0.3419
18.2430 0.3419
18.2490 0.3420
18.2550 0.3420
18.2610 0.3420
18.2670 0.3421
18.2720 0.3421
18.2780 0.3421
18.2840 0.3422
18.2900 0.3422
18.2960 0.3423
18.3010 0.3423
18.3070 0.3424
18.3130 0.3424
18.3190 0.3425
18.3250 0.3426
18.3300 0.3426
18.3360 0.3427
18.3420 0.3428
18.3480 0.3428
18.3540 0.3429
18.3590 0.3430
18.3650 0.3431
18.3710 0.3431
18.3770 0.3432
18.3830 0.3433
18.3880 0.3434
18.3940 0.3434
18.4000 0.3435
18.4060 0.3436
18.4120 0.3437
18.4170 0.3437
18.4230 0.3438
18.4290 0.3439
18.4350 0.3440
18.4410 0.3440
18.4460 0.3441
18.4520 0.3441
18.4580 0.3442
18.4640 0.3442
18.4700 0.3443
18.4750 0.3443
18.4810 0.3443
18.4870 0.3443
18.4930 0.3444
18.4990 0.3444
18.5040 0.3442
18.5100 0.3439
18.5160 0.3436
18.5220 0.3433
18.5280 0.3430
18.5330 0.3427
18.5390 0.3424
18.5450 0.3421
18.5510 0.3418
18.5570 0.3415
18.5620 0.3411
18.5680 0.3408
18.5740 0.3404
18.5800 0.3401
18.5860 0.3397
18.5910 0.3394
18.5970 0.3390
18.6030 0.3387
18.6090 0.3383
18.6150 0.3380
18.6200 0.3376
18.6260 0.3372
18.6320 0.3369
18.6380 0.3365
18.6440 0.3361
18.6490 0.3358
18.6550 0.3354
18.6610 0.3350
18.6670 0.3346
18.6730 0.3342
18.6780 0.3339
18.6840 0.3335
18.6900 0.3331
18.6960 0.3327
18.7020 0.3323
18.7070 0.3319
18.7130 0.3315
18.7190 0.3311
18.7250 0.3308
18.7310 0.3304
18.7360 0.3300
18.7420 0.3296
18.7480 0.3292
18.7540 0.3288
18.7600 0.3284
18.7650 0.3280
18.7710 0.3277
18.7770 0.3273
18.7830 0.3269
18.7890 0.3265
18.7940 0.3261
18.8000 0.3257
18.8060 0.3253
18.8120 0.3250
18.8180 0.3246
18.8230 0.3242
18.8290 0.3238
18.8350 0.3234
18.8410 0.3231
18.8470 0.3227
18.8520 0.3223
18.8580 0.3219
18.8640 0.3216
18.8700 0.3212
18.8760 0.3209
18.8810 0.3205
18.8870 0.3202
18.8930 0.3199
18.8990 0.3196
18.9050 0.3193
18.9100 0.3190
18.9160 0.3187
18.9220 0.3184
18.9280 0.3182
18.9340 0.3179
18.9390 0.3177
18.9450 0.3175
18.9510 0.3173
18.9570 0.3170
18.9630 0.3169
18.9680 0.3167
18.9740 0.3165
18.9800 0.3163
18.9860 0.3162
18.9920 0.3161
18.9970 0.3159
19.0030 0.3159
19.0090 0.3159
19.0150 0.3160
19.0210 0.3160
19.0260 0.3160
19.0320 0.3161
19.0380 0.3161
19.0440 0.3161
19.0500 0.3161
19.0550 0.3161
19.0610 0.3161
19.0670 0.3161
19.0730 0.3161
19.0790 0.3161
19.0840 0.3160
19.0900 0.3159
19.0960 0.3158
19.1020 0.3157
19.1080 0.3155
19.1130 0.3154
19.1190 0.3152
19.1250 0.3150
19.1310 0.3148
19.1370 0.3145
19.1420 0.3142
19.1480 0.3139
19.1540 0.3135
19.1600 0.3132
19.1660 0.3127
19.1710 0.3122
19.1770 0.3118
19.1830 0.3112
19.1890 0.3106
19.1950 0.3099
19.2000 0.3093
19.2060 0.3085
19.2120 0.3077
19.2180 0.3069
19.2240 0.3060
19.2290 0.3049
19.2350 0.3039
19.2410 0.3029
19.2470 0.3016
19.2530 0.3004
19.2580 0.2991
19.2640 0.2977
19.2700 0.2962
19.2760 0.2946
19.2820 0.2930
19.2870 0.2912
19.2930 0.2894
19.2990 0.2876
19.3050 0.2856
19.3110 0.2835
19.3160 0.2814
19.3220 0.2792
19.3280 0.2768
19.3340 0.2744
19.3400 0.2720
19.3450 0.2694
19.3510 0.2667
19.3570 0.2640
19.3630 0.2612
19.3690 0.2582
19.3740 0.2552
19.3800 0.2523
19.3860 0.2490
19.3920 0.2458
19.3980 0.2426
19.4030 0.2392
19.4090 0.2357
19.4150 0.2322
19.4210 0.2286
19.4270 0.2249
19.4320 0.2212
19.4380 0.2176
19.4440 0.2137
19.4500 0.2099
19.4560 0.2060
19.4610 0.2021
19.4670 0.1981
19.4730 0.1942
19.4790 0.1903
19.4850 0.1863
19.4900 0.1823
19.4960 0.1783
19.5020 0.1743
19.5080 0.1705
19.5140 0.1666
19.5190 0.1628
19.5250 0.1590
19.5310 0.1552
19.5370 0.1514
19.5430 0.1476
19.5480 0.1440
19.5540 0.1403
19.5600 0.1367
19.5660 0.1331
19.5720 0.1296
19.5770 0.1261
19.5830 0.1227
19.5890 0.1193
19.5950 0.1160
19.6010 0.1127
19.6060 0.1095
19.6120 0.1064
19.6180 0.1032
19.6240 0.1002
19.6300 0.0973
19.6350 0.0944
19.6410 0.0915
19.6470 0.0888
19.6530 0.0861
19.6590 0.0834
19.6640 0.0809
19.6700 0.0784
19.6760 0.0760
19.6820 0.0736
19.6880 0.0714
19.6930 0.0692
19.6990 0.0669
19.7050 0.0649
19.7110 0.0629
19.7170 0.0610
19.7220 0.0591
19.7280 0.0573
19.7340 0.0555
19.7400 0.0537
19.7460 0.0521
19.7510 0.0505
19.7570 0.0489
19.7630 0.0474
19.7690 0.0459
19.7750 0.0445
19.7800 0.0430
19.7860 0.0417
19.7920 0.0404
19.7980 0.0391
19.8040 0.0378
19.8090 0.0366
19.8150 0.0354
19.8210 0.0343
19.8270 0.0332
19.8330 0.0321
19.8380 0.0310
19.8440 0.0300
19.8500 0.0290
19.8560 0.0281
19.8620 0.0271
19.8670 0.0263
19.8730 0.0254
19.8790 0.0245
19.8850 0.0238
19.8910 0.0230
19.8960 0.0223
19.9020 0.0216
19.9080 0.0210
19.9140 0.0204
19.9200 0.0197
19.9250 0.0192
19.9310 0.0187
19.9370 0.0181
19.9430 0.0177
19.9490 0.0172
19.9540 0.0168
19.9600 0.0163
19.9660 0.0160
19.9720 0.0156
19.9780 0.0152
19.9830 0.0149
19.9890 0.0145
19.9950 0.0142
20.0010 0.0139
20.0070 0.0136
20.0120 0.0133
20.0180 0.0130
20.0240 0.0127
20.0300 0.0124
20.0360 0.0121
20.0410 0.0118
20.0470 0.0115
20.0530 0.0113
20.0590 0.0110
20.0650 0.0107
20.0700 0.0104
20.0760 0.0102
20.0820 0.0099
20.0880 0.0096
20.0940 0.0094
20.0990 0.0091
20.1050 0.0089
20.1110 0.0086
20.1170 0.0083
20.1230 0.0081
20.1280 0.0079
20.1340 0.0076
20.1400 0.0074
20.1460 0.0072
20.1520 0.0069
20.1570 0.0067
20.1630 0.0065
20.1690 0.0063
20.1750 0.0061
20.1810 0.0060
20.1860 0.0058
20.1920 0.0056
20.1980 0.0054
20.2040 0.0053
20.2100 0.0051
20.2150 0.0050
20.2210 0.0048
20.2270 0.0047
20.2330 0.0046
20.2390 0.0044
20.2440 0.0043
20.2500 0.0042
20.2560 0.0041
20.2620 0.0039
20.2680 0.0038
20.2730 0.0037
20.2790 0.0036
20.2850 0.0035
20.2910 0.0033
20.2970 0.0032
20.3020 0.0031
20.3080 0.0030
20.3140 0.0029
20.3200 0.0028
20.3260 0.0027
20.3310 0.0026
20.3370 0.0025
20.3430 0.0024
20.3490 0.0023
20.3550 0.0023
20.3600 0.0022
20.3660 0.0021
20.3720 0.0020
20.3780 0.0019
20.3840 0.0019
20.3890 0.0018
20.3950 0.0017
20.4010 0.0017
20.4070 0.0016
20.4130 0.0016
20.4180 0.0015
20.4240 0.0015
20.4300 0.0014
20.4360 0.0014
20.4420 0.0014
20.4470 0.0014
20.4530 0.0013
20.4590 0.0013
20.4650 0.0013
20.4710 0.0013
20.4760 0.0013
20.4820 0.0012
20.4880 0.0012
20.4940 0.0012
20.5000 0.0012
20.5050 0.0012
20.5110 0.0012
20.5170 0.0012
20.5230 0.0012
20.5290 0.0012
20.5340 0.0012
20.5400 0.0012
20.5460 0.0012
20.5520 0.0012
20.5580 0.0012
20.5630 0.0012
20.5690 0.0012
20.5750 0.0012
20.5810 0.0012
20.5870 0.0011
20.5920 0.0011
20.5980 0.0011
20.6040 0.0011
20.6100 0.0011
20.6160 0.0011
20.6210 0.0010
20.6270 0.0010
20.6330 0.0010
20.6390 0.0010
20.6450 0.0009
20.6500 0.0009
20.6560 0.0009
20.6620 0.0008
20.6680 0.0008
20.6740 0.0008
20.6790 0.0007
20.6850 0.0007
20.6910 0.0007
20.6970 0.0006
20.7030 0.0006
20.7080 0.0006
20.7140 0.0005
20.7200 0.0005
20.7260 0.0005
20.7320 0.0004
20.7370 0.0004
20.7430 0.0004
20.7490 0.0004
20.7550 0.0003
20.7610 0.0003
20.7660 0.0003
20.7720 0.0003
20.7780 0.0002
20.7840 0.0002
20.7900 0.0002
20.7950 0.0002
20.8010 0.0002
20.8070 0.0001
20.8130 0.0001
20.8190 0.0001
20.8240 0.0001
20.8300 0.0001
20.8360 0.0001
20.8420 0.0001
20.8480 0.0001
20.8530 0.0001
20.8590 0.0001
20.8650 0.0001
20.8710 0.0001
20.8770 0.0001
20.8820 0.0001
20.8880 0.0001
20.8940 0.0001
20.9000 0.0001
20.9060 0.0001
20.9110 0.0001
20.9170 0.0001
20.9230 0.0001
20.9290 0.0001
20.9350 0.0001
20.9400 0.0001
20.9460 0.0001
20.9520 0.0001
20.9580 0.0001
20.9640 0.0001
20.9690 0.0001
20.9750 0.0001
20.9810 0.0001
20.9870 0.0001
20.9930 0.0001
20.9980 0.0001
21.0040 0.0001
21.0100 0.0001
21.0160 0.0001
21.0220 0.0001
21.0270 0.0001
